#editted by cmc
#
# FLAMINGOS BARR J-Band Witness Sample MAN-240-W
# Witness Measured at 77 K		
# Peak Transmission (%)         83.34E+00
# Cut-on Wavelength (nm)	1169.80
# Cut-off Wavelength (nm)	1326.15
# Wavelength (micron)           Transmission
1.326000  0.425600
1.325500  0.461900
1.325000  0.502500
1.324500  0.535800
1.324000  0.574900
1.323500  0.604400
1.323000  0.633900
1.322500  0.659600
1.322000  0.687400
1.321500  0.711100
1.321000  0.728600
1.320500  0.743900
1.320000  0.755900
1.319500  0.762300
1.319000  0.771900
1.318500  0.775900
1.318000  0.779200
1.317500  0.781200
1.317000  0.780000
1.316500  0.779000
1.316000  0.778600
1.315500  0.776200
1.315000  0.773000
1.314500  0.770700
1.314000  0.767700
1.313500  0.764700
1.313000  0.761700
1.312500  0.758300
1.312000  0.755100
1.311500  0.751300
1.311000  0.748100
1.310500  0.745200
1.310000  0.743100
1.309500  0.739700
1.309000  0.737300
1.308500  0.734500
1.308000  0.732200
1.307500  0.729200
1.307000  0.728200
1.306500  0.725200
1.306000  0.723300
1.305500  0.721600
1.305000  0.719600
1.304500  0.717300
1.304000  0.716400
1.303500  0.713600
1.303000  0.713400
1.302500  0.710700
1.302000  0.710400
1.301500  0.709900
1.301000  0.708400
1.300500  0.709200
1.300000  0.707800
1.299500  0.709500
1.299000  0.708700
1.298500  0.709400
1.298000  0.710800
1.297500  0.711700
1.297000  0.713500
1.296500  0.714200
1.296000  0.716800
1.295500  0.718300
1.295000  0.721000
1.294500  0.722900
1.294000  0.726100
1.293500  0.728100
1.293000  0.732200
1.292500  0.735400
1.292000  0.738400
1.291500  0.742900
1.291000  0.744800
1.290500  0.750800
1.290000  0.753000
1.289500  0.757000
1.289000  0.761400
1.288500  0.763300
1.288000  0.766900
1.287500  0.771000
1.287000  0.774500
1.286500  0.778300
1.286000  0.780500
1.285500  0.784000
1.285000  0.785000
1.284500  0.789600
1.284000  0.791700
1.283500  0.793000
1.283000  0.796000
1.282500  0.797000
1.282000  0.797300
1.281500  0.801600
1.281000  0.800100
1.280500  0.802300
1.280000  0.802700
1.279500  0.804000
1.279000  0.805800
1.278500  0.803400
1.278000  0.805400
1.277500  0.803900
1.277000  0.806500
1.276500  0.805600
1.276000  0.804800
1.275500  0.806000
1.275000  0.804900
1.274500  0.805100
1.274000  0.804200
1.273500  0.802900
1.273000  0.803100
1.272500  0.803300
1.272000  0.803000
1.271500  0.800800
1.271000  0.801000
1.270500  0.801100
1.270000  0.798200
1.269500  0.799200
1.269000  0.797200
1.268500  0.798200
1.268000  0.795400
1.267500  0.795600
1.267000  0.794200
1.266500  0.793500
1.266000  0.792000
1.265500  0.792300
1.265000  0.789200
1.264500  0.789600
1.264000  0.788300
1.263500  0.788300
1.263000  0.787700
1.262500  0.784800
1.262000  0.785900
1.261500  0.785700
1.261000  0.785200
1.260500  0.783200
1.260000  0.782700
1.259500  0.783800
1.259000  0.782400
1.258500  0.782700
1.258000  0.782900
1.257500  0.781400
1.257000  0.782700
1.256500  0.781300
1.256000  0.782500
1.255500  0.782200
1.255000  0.782900
1.254500  0.782800
1.254000  0.782800
1.253500  0.783000
1.253000  0.783600
1.252500  0.782800
1.252000  0.783900
1.251500  0.783500
1.251000  0.783400
1.250500  0.784200
1.250000  0.782700
1.249500  0.783500
1.249000  0.782800
1.248500  0.784000
1.248000  0.784300
1.247500  0.782800
1.247000  0.782900
1.246500  0.783200
1.246000  0.783200
1.245500  0.784100
1.245000  0.783500
1.244500  0.783300
1.244000  0.784100
1.243500  0.785200
1.243000  0.784100
1.242500  0.784800
1.242000  0.785400
1.241500  0.788400
1.241000  0.789600
1.240500  0.788500
1.240000  0.791300
1.239500  0.793800
1.239000  0.793100
1.238500  0.797200
1.238000  0.799000
1.237500  0.800100
1.237000  0.801500
1.236500  0.804900
1.236000  0.807600
1.235500  0.808000
1.235000  0.811200
1.234500  0.812600
1.234000  0.814800
1.233500  0.818500
1.233000  0.818500
1.232500  0.820500
1.232000  0.822800
1.231500  0.824800
1.231000  0.825400
1.230500  0.827700
1.230000  0.827200
1.229500  0.828100
1.229000  0.828900
1.228500  0.828300
1.228000  0.828600
1.227500  0.828100
1.227000  0.827800
1.226500  0.826400
1.226000  0.826900
1.225500  0.825400
1.225000  0.825000
1.224500  0.823100
1.224000  0.823100
1.223500  0.821200
1.223000  0.820700
1.222500  0.819500
1.222000  0.819300
1.221500  0.817400
1.221000  0.817000
1.220500  0.816500
1.220000  0.815800
1.219500  0.816300
1.219000  0.814900
1.218500  0.814100
1.218000  0.814300
1.217500  0.814700
1.217000  0.813400
1.216500  0.814200
1.216000  0.814400
1.215500  0.813700
1.215000  0.813300
1.214500  0.813500
1.214000  0.812500
1.213500  0.811900
1.213000  0.811200
1.212500  0.809500
1.212000  0.808800
1.211500  0.807600
1.211000  0.805100
1.210500  0.803800
1.210000  0.802100
1.209500  0.799900
1.209000  0.798200
1.208500  0.795900
1.208000  0.793900
1.207500  0.790900
1.207000  0.788900
1.206500  0.787400
1.206000  0.785500
1.205500  0.782800
1.205000  0.782600
1.204500  0.780900
1.204000  0.780300
1.203500  0.779500
1.203000  0.780000
1.202500  0.781000
1.202000  0.781200
1.201500  0.782500
1.201000  0.784600
1.200500  0.786800
1.200000  0.788800
1.199500  0.791900
1.199000  0.795300
1.198500  0.798800
1.198000  0.802700
1.197500  0.804700
1.197000  0.808900
1.196500  0.813600
1.196000  0.814800
1.195500  0.820800
1.195000  0.821600
1.194500  0.825000
1.194000  0.827000
1.193500  0.830000
1.193000  0.828200
1.192500  0.833400
1.192000  0.829700
1.191500  0.831800
1.191000  0.830800
1.190500  0.829400
1.190000  0.828000
1.189500  0.827100
1.189000  0.824500
1.188500  0.825000
1.188000  0.820400
1.187500  0.820800
1.187000  0.818400
1.186500  0.816500
1.186000  0.816000
1.185500  0.814900
1.185000  0.812600
1.184500  0.813300
1.184000  0.811500
1.183500  0.809800
1.183000  0.808400
1.182500  0.807800
1.182000  0.801400
1.181500  0.801700
1.181000  0.794000
1.180500  0.788600
1.180000  0.780500
1.179500  0.769500
1.179000  0.758400
1.178500  0.745800
1.178000  0.728100
1.177500  0.715500
1.177000  0.696300
1.176500  0.677500
1.176000  0.653900
1.175500  0.635400
1.175000  0.612100
1.174500  0.593800
1.174000  0.574100
1.173500  0.550600
1.173000  0.529700
1.172500  0.512300
1.172000  0.489400
1.171500  0.476300
1.171000  0.457200
1.170500  0.440000
1.170000  0.425200
